#Wavelength[nm]	ADC
177.850	1186
178.205	1241
178.559	1213
178.913	1211
179.265	1178
179.617	1226
179.968	1207
180.319	1220
180.669	1230
181.018	1189
181.366	1291
181.714	1227
182.061	1202
182.407	1324
182.752	1247
183.097	1177
183.441	1179
183.785	1243
184.127	1224
184.469	1253
184.811	1225
185.151	1214
185.491	1277
185.831	1226
186.169	1204
186.507	1213
186.845	1176
187.181	1174
187.518	1361
187.853	1207
188.188	1167
188.522	1204
188.855	1217
189.188	1207
189.521	1278
189.852	1266
190.183	1241
190.514	1208
190.844	1239
191.173	1182
191.501	1161
191.829	1217
192.157	1238
192.484	1218
192.810	1202
193.136	1261
193.461	1202
193.785	1196
194.109	1221
194.432	1220
194.755	1198
195.077	1271
195.399	1254
195.720	1236
196.041	1215
196.361	1175
196.680	1204
196.999	1215
197.318	1221
197.635	1221
197.953	1199
198.270	1234
198.586	1234
198.902	1283
199.217	1211
199.531	1247
199.846	1257
200.159	1230
200.473	1238
200.785	1246
201.097	1273
201.409	1233
201.720	1228
202.031	1217
202.341	1170
202.651	1198
202.960	1171
203.269	1193
203.577	1221
203.885	1190
204.192	1192
204.499	1189
204.806	1192
205.112	1225
205.417	1217
205.722	1221
206.027	1223
206.331	1207
206.635	1240
206.938	1246
207.241	1176
207.543	1235
207.845	1186
208.147	1217
208.448	1196
208.748	1230
209.049	1213
209.349	1177
209.648	1250
209.947	1160
210.246	1234
210.544	1201
210.842	1237
211.139	1224
211.436	1206
211.732	1209
212.029	1224
212.324	1189
212.620	1226
212.915	1234
213.210	1243
213.504	1175
213.798	1255
214.091	1193
214.384	1320
214.677	1217
214.969	1180
215.262	1219
215.553	1208
215.844	1214
216.135	1209
216.426	1224
216.716	1220
217.006	1255
217.296	1197
217.585	1171
217.874	1238
218.162	1211
218.450	1196
218.738	1215
219.026	1220
219.313	1241
219.600	1199
219.886	1235
220.172	1202
220.458	1182
220.744	1228
221.029	1172
221.314	1183
221.598	1239
221.883	1173
222.167	1274
222.450	1222
222.734	1179
223.017	1203
223.299	1218
223.582	1219
223.864	1229
224.146	1221
224.427	1251
224.709	1193
224.990	1204
225.270	1208
225.551	1210
225.831	1241
226.111	1212
226.390	1217
226.670	1236
226.949	1264
227.227	1202
227.506	1182
227.784	1181
228.062	1217
228.340	1206
228.617	1240
228.894	1240
229.171	1214
229.448	1211
229.724	1183
230.000	1247
230.276	1215
230.552	1241
230.827	1237
231.102	1224
231.377	1206
231.652	1326
231.926	1206
232.201	1229
232.475	1242
232.748	1245
233.022	1262
233.295	1209
233.568	1220
233.841	1241
234.113	1224
234.386	1221
234.658	1215
234.930	1182
235.201	1219
235.473	1249
235.744	1247
236.015	1266
236.286	1215
236.556	1244
236.827	1252
237.097	1251
237.367	1204
237.637	1247
237.906	1241
238.175	1221
238.445	1222
238.714	1564
238.982	1249
239.251	1254
239.519	1218
239.787	1254
240.055	1211
240.323	1212
240.591	1241
240.858	1230
241.125	1209
241.392	1225
241.659	1271
241.926	1234
242.192	1238
242.459	1224
242.725	1223
242.991	1241
243.256	1243
243.522	1327
243.787	1273
244.053	1786
244.318	1270
244.583	1222
244.847	1199
245.112	1284
245.376	1244
245.640	1250
245.904	1250
246.168	1236
246.432	1212
246.696	1200
246.959	1224
247.222	1224
247.485	1230
247.748	1170
248.011	1185
248.274	1233
248.536	1204
248.799	1203
249.061	1208
249.323	1190
249.585	1214
249.846	1188
250.108	1195
250.369	1219
250.631	1197
250.892	1164
251.153	1216
251.414	1218
251.675	1225
251.935	1228
252.196	1225
252.456	1259
252.716	1224
252.976	1219
253.236	1245
253.496	1235
253.755	1230
254.015	1192
254.274	1220
254.534	1357
254.793	1197
255.052	1201
255.310	1245
255.569	1197
255.828	1218
256.086	1202
256.345	1167
256.603	1219
256.861	1197
257.119	1211
257.377	1189
257.635	1249
257.892	1217
258.150	1202
258.407	1212
258.664	1200
258.921	1237
259.178	1225
259.435	1214
259.692	1249
259.949	1238
260.205	1242
260.462	1222
260.718	1164
260.974	1214
261.231	1234
261.487	1302
261.742	1198
261.998	1251
262.254	1227
262.509	1236
262.765	1242
263.020	1259
263.276	1261
263.531	1216
263.786	1203
264.041	1231
264.296	1237
264.550	1238
264.805	1241
265.059	1251
265.314	1230
265.568	1209
265.822	1221
266.076	1232
266.330	1208
266.584	1397
266.838	1247
267.092	1243
267.345	1226
267.599	1227
267.852	1272
268.106	1270
268.359	1274
268.612	1208
268.865	1267
269.118	1247
269.371	1256
269.624	1272
269.876	1279
270.129	1209
270.381	1218
270.634	1257
270.886	1212
271.138	1274
271.390	1244
271.642	1236
271.894	1285
272.146	1250
272.398	1231
272.649	1242
272.901	1247
273.152	1232
273.404	1219
273.655	1263
273.906	1287
274.157	1253
274.408	1246
274.659	1223
274.910	1279
275.160	1280
275.411	1257
275.662	1255
275.912	1279
276.163	1275
276.413	1299
276.663	1305
276.913	1305
277.163	1308
277.413	1282
277.663	1263
277.913	1293
278.162	1743
278.412	1258
278.661	1307
278.911	1283
279.160	1285
279.409	1253
279.658	1253
279.908	1256
280.156	1262
280.405	1239
280.654	1262
280.903	1205
281.151	1280
281.400	1254
281.648	1228
281.897	1218
282.145	1279
282.393	1258
282.641	1261
282.889	1291
283.137	1292
283.385	1247
283.633	1280
283.881	1287
284.128	1251
284.376	1284
284.623	1246
284.871	1335
285.118	1537
285.365	2065
285.612	2824
285.859	2881
286.106	3396
286.353	4456
286.599	5346
286.846	5458
287.093	4133
287.339	2517
287.585	1550
287.832	1322
288.078	1294
288.324	1272
288.570	1231
288.816	1242
289.062	1305
289.308	1222
289.553	1240
289.799	1261
290.044	1367
290.290	1405
290.535	1730
290.780	2029
291.025	2365
291.270	2802
291.515	3786
291.760	4850
292.005	5462
292.250	4754
292.494	3138
292.739	1773
292.983	1307
293.227	1272
293.472	1240
293.716	1264
293.960	1237
294.204	1263
294.448	1234
294.691	1252
294.935	1252
295.179	1245
295.422	1225
295.665	1203
295.909	1217
296.152	1267
296.395	1211
296.638	1215
296.881	1231
297.124	1198
297.366	1202
297.609	1212
297.852	1214
298.094	1231
298.336	1177
298.579	1225
298.821	1213
299.063	1226
299.305	1212
299.546	1221
299.788	1172
300.030	1205
300.271	1187
300.513	1168
300.754	1182
300.995	1258
301.236	1186
301.477	1245
301.718	1204
301.959	1195
302.200	1214
302.440	1182
302.681	1236
302.921	1236
303.162	1228
303.402	1213
303.642	1199
303.882	1175
304.122	1197
304.362	1194
304.601	1262
304.841	1177
305.080	1232
305.319	1220
305.559	1194
305.798	1199
306.037	1212
306.276	1170
306.514	1172
306.753	1192
306.992	1177
307.230	1174
307.468	1211
307.707	1197
307.945	1170
308.183	1167
308.421	1178
308.658	1176
308.896	1198
309.133	1187
309.371	1189
309.608	1179
309.845	1167
310.082	1224
310.319	1180
310.556	1239
310.793	1180
311.029	1162
311.266	1205
311.502	1165
311.738	1228
311.974	1224
312.210	1236
312.446	1195
312.682	1210
312.917	1183
313.153	1215
313.388	1241
313.623	1244
313.859	1203
314.093	1166
314.328	1212
314.563	1204
314.798	1198
315.032	1150
315.266	1190
315.500	1180
315.734	1167
315.968	1205
316.202	1161
316.436	1142
316.669	1233
316.903	1217
317.136	1183
317.369	1197
317.602	1180
317.835	1163
318.067	1207
318.300	1203
318.532	1186
318.765	1178
318.997	1234
319.229	1205
319.461	1221
319.692	1188
319.924	1183
320.155	1177
320.387	1196
320.618	1180
320.849	1138
321.080	1176
321.310	1203
321.541	1180
321.771	1179
322.002	1204
322.232	1204
322.462	1228
322.691	1216
322.921	1224
323.151	1233
323.380	1160
323.609	1223
323.838	1162
324.067	1195
324.296	1167
324.524	1182
324.753	1156
324.981	1157
325.209	1209
325.437	1196
325.665	1188
325.893	1165
326.120	1205
326.348	1192
326.575	1244
326.802	1168
327.029	1130
327.255	1185
327.482	1193
327.708	1187
327.934	1204
328.160	1168
328.386	1150
328.612	1174
328.837	1179
329.063	1166
329.288	1198
329.513	1213
329.738	1208
329.963	1207
330.187	1182
330.411	1234
330.636	1151
330.860	1128
331.084	1207
331.307	1161
331.531	1210
331.754	1193
331.977	1144
332.200	1179
332.423	1143
332.645	1209
332.868	1180
333.090	1215
333.312	1200
333.534	1167
333.756	1190
333.977	1185
334.199	1144
334.420	1174
334.641	1195
334.862	1170
335.082	1178
335.303	1174
335.523	1198
335.743	1181
335.963	1165
336.182	1166
336.402	1150
336.621	1176
336.840	1154
337.059	1191
337.278	1187
337.496	1178
337.715	1167
337.933	1178
338.151	1204
338.369	1201
338.586	1176
338.804	1198
339.021	1229
339.238	1163
339.454	1211
339.671	1200
339.887	1198
340.104	1140
340.320	1176
340.535	1215
340.751	1202
340.966	1207
341.181	1228
341.396	1177
341.611	1158
341.826	1190
342.040	1179
342.254	1194
342.468	1159
342.682	1161
342.895	1191
343.109	1169
343.322	1194
343.535	1189
343.747	1178
343.960	1154
344.172	1145
344.384	1197
344.596	1187
344.808	1144
345.019	1182
345.230	1113
345.441	1207
345.652	1192
345.863	1182
346.073	1214
346.283	1169
346.493	1217
346.703	1186
346.912	1189
347.121	1202
347.331	1188
347.539	1189
347.748	1217
347.956	1192
348.164	1177
348.372	1187
348.580	1199
348.787	1223
348.995	1192
349.202	1167
349.409	1219
349.615	1199
349.821	1195
350.028	1144
350.233	1131
350.439	1221
350.645	1205
350.850	1193
351.055	1335
351.259	1184
351.464	1230
351.668	1228
351.872	1215
352.076	1226
352.280	1162
352.483	1197
352.686	1167
352.889	1134
353.092	1151
353.294	1220
353.496	1168
353.698	1193
353.900	1173
354.101	1192
354.302	1150
354.503	1141
354.704	1192
354.905	1202
355.105	1197
355.305	1221
355.505	1182
355.704	1180
355.904	1162
356.103	1196
356.301	1163
356.500	1189
356.698	1201
356.896	1198
357.094	1162
357.292	1200
357.489	1155
357.686	1185
357.883	1158
358.080	1182
358.276	1179
358.472	1199
358.668	1182
358.863	1194
359.059	1183
359.254	1248
359.449	1171
359.643	1161
359.838	1156
360.032	1182
360.226	1183
360.419	1186
360.613	1168
360.806	1193
360.998	1171
361.191	1166
361.383	1144
361.575	1195
361.767	1186
361.959	1156
362.150	1191
362.341	1198
362.532	1129
362.722	1218
362.913	1161
363.103	1198
363.293	1241
363.482	1208
363.671	1175
363.860	1160
364.049	1154
364.237	1182
364.426	1172
364.614	1187
364.801	1133
364.989	1189
365.176	1208
365.363	1182
365.549	1197
365.736	1205
365.922	1156
366.108	1194
366.293	1182
366.479	1239
366.664	1146
366.849	1171
367.033	1177
367.217	1185
367.402	1174
367.585	1116
367.769	1181
367.952	1227
368.135	1205
368.318	1166
368.500	1181
368.682	1132
368.864	1199
369.046	1139
369.227	1188
369.408	1163
369.589	1142
369.770	1197
369.950	1192
370.130	1176
370.310	1194
370.489	1202
370.669	1167
370.848	1215
371.026	1235
371.205	1167
371.383	1214
371.561	1146
371.738	1169
371.916	1210
372.093	1173
372.270	1198
372.446	1174
372.623	1193
372.799	1153
372.974	1159
373.150	1171
373.325	1181
373.500	1196
373.675	1242
373.849	1167
374.023	1205
374.197	1218
374.371	1226
374.544	1160
374.717	1253
374.890	1212
375.063	1202
375.235	1183
375.407	1206
375.579	1187
375.750	1182
375.921	1193
376.092	1191
376.263	1180
376.433	1170
376.603	1171
376.773	1235
376.943	1185
377.112	1204
377.281	1188
377.450	1227
377.619	1201
377.787	1224
377.955	1235
378.122	1215
378.290	1240
378.457	1240
378.624	1239
378.791	1229
378.957	1261
379.123	1266
379.289	1218
379.455	1173
379.620	1263
379.785	1245
379.950	1214
380.114	1192
380.279	1291
380.443	1240
380.606	1199
380.770	1172
380.933	1217
381.096	1186
381.259	1181
381.421	1180
381.583	1207
381.745	1208
381.907	1262
382.068	1200
382.229	1183
382.390	1226
382.551	1199
382.711	1217
382.871	1288
383.031	1239
383.190	1166
383.350	1188
383.509	1201
383.668	1256
383.826	1218
383.984	1207
384.142	1187
384.300	1178
384.458	1208
384.615	1199
384.772	1212
384.928	1165
385.085	1183
385.241	1204
385.397	1227
385.553	1211
385.708	1219
385.863	1186
386.018	1185
386.173	1160
386.327	1166
386.482	1186
386.636	1255
386.789	1172
386.943	1188
387.096	1226
387.249	1206
387.402	1201
387.554	1171
387.706	1178
387.858	1205
388.010	1240
388.161	1234
388.313	1194
388.464	1236
388.614	1158
388.765	1215
388.915	1180
389.065	1210
389.215	1216
389.365	1214
389.514	1241
389.663	1240
389.812	1240
389.960	1192
390.109	1213
390.257	1198
390.405	1194
390.552	1218
390.700	1183
390.847	1227
390.994	1198
391.141	1227
391.287	1216
391.434	1179
391.580	1248
391.725	1175
391.871	1179
392.016	1235
392.162	1217
392.306	1256
392.451	1203
392.596	1278
392.740	1222
392.884	1219
393.028	1229
393.171	1187
393.315	1212
393.458	1210
393.601	1229
393.744	1190
393.886	1219
394.029	1253
394.171	1277
394.313	1257
394.454	1230
394.596	1242
394.737	1239
394.878	1224
395.019	1196
395.160	1237
395.300	1296
395.440	1217
395.580	1218
395.720	1216
395.860	1245
395.999	1233
396.139	1220
396.278	1200
396.417	1243
396.555	1219
396.694	1228
396.832	1180
396.970	1190
397.108	1217
397.246	1232
397.383	1219
397.521	1206
397.658	1237
397.795	1232
397.932	1202
398.068	1260
398.205	1371
398.341	1214
398.477	1231
398.613	1259
398.749	1251
398.884	1213
399.020	1225
399.155	1206
399.290	1198
399.425	1220
399.560	1237
399.694	1239
399.829	1187
399.963	1170
400.097	1198
400.231	1199
400.365	1232
400.499	1238
400.632	1245
400.766	1211
400.899	1202
401.032	1180
401.165	1270
401.297	1206
401.430	1243
401.562	1254
401.695	1204
401.827	1230
401.959	1215
402.091	1215
402.223	1219
402.354	1219
402.486	1215
402.617	1192
402.748	1253
402.879	1242
403.010	1206
403.141	1222
403.272	1238
403.403	1228
403.533	1180
403.664	1226
403.794	1218
403.924	1272
404.054	1303
404.184	1250
404.314	1220
404.444	1237
404.573	1245
404.703	1188
404.832	1212
404.962	1167
405.091	1199
405.220	1207
405.349	1225
405.478	1184
405.607	1238
405.736	1242
405.864	1210
405.993	1177
406.122	1208
406.250	1232
406.378	1239
406.507	1188
406.635	1195
406.763	1205
406.891	1230
407.019	1212
407.147	1203
407.275	1185
407.403	1219
407.531	1214
407.659	1186
407.786	1182
407.914	1223
408.041	1195
408.169	1224
